; WAVELENGTH MAT._REFRACTIVE_INDEX MAT._ABSORPTION
190.00000 1.55969 0.00025 
191.05453 1.55768 0.00008 
192.10905 1.55571 -0.00008 
193.16358 1.55378 -0.00023 
194.21811 1.55190 -0.00038 
195.27264 1.55006 -0.00052 
196.32716 1.54825 -0.00065 
197.38169 1.54648 -0.00078 
198.43622 1.54475 -0.00090 
199.49075 1.54306 -0.00102 
200.54527 1.54140 -0.00113 
201.59980 1.53977 -0.00123 
202.65433 1.53818 -0.00133 
203.70885 1.53661 -0.00143 
204.76338 1.53508 -0.00152 
205.81791 1.53358 -0.00160 
206.87244 1.53211 -0.00168 
207.92696 1.53067 -0.00176 
208.98149 1.52926 -0.00183 
210.03602 1.52787 -0.00190 
211.09055 1.52651 -0.00197 
212.14507 1.52518 -0.00203 
213.19960 1.52387 -0.00209 
214.25413 1.52259 -0.00214 
215.30865 1.52133 -0.00219 
216.36318 1.52010 -0.00224 
217.41771 1.51888 -0.00229 
218.47224 1.51769 -0.00233 
219.52676 1.51652 -0.00237 
220.58129 1.51538 -0.00241 
221.63582 1.51425 -0.00244 
222.69035 1.51315 -0.00247 
223.74487 1.51206 -0.00250 
224.79940 1.51099 -0.00253 
225.85393 1.50994 -0.00255 
226.90845 1.50891 -0.00258 
227.96298 1.50790 -0.00260 
229.01751 1.50691 -0.00262 
230.07204 1.50593 -0.00264 
231.12656 1.50497 -0.00265 
232.18109 1.50403 -0.00267 
233.23562 1.50310 -0.00268 
234.29015 1.50219 -0.00269 
235.34467 1.50129 -0.00270 
236.39920 1.50041 -0.00270 
237.45373 1.49954 -0.00271 
238.50825 1.49869 -0.00271 
239.56278 1.49785 -0.00272 
240.61731 1.49703 -0.00272 
241.67184 1.49622 -0.00272 
242.72636 1.49542 -0.00272 
243.78089 1.49463 -0.00272 
244.83542 1.49386 -0.00272 
245.88994 1.49310 -0.00271 
246.94447 1.49235 -0.00271 
247.99900 1.49161 -0.00270 
249.05353 1.49089 -0.00270 
250.10805 1.49018 -0.00269 
251.16258 1.48947 -0.00268 
252.21711 1.48878 -0.00267 
253.27164 1.48810 -0.00266 
254.32616 1.48743 -0.00265 
255.38069 1.48677 -0.00264 
256.43522 1.48612 -0.00263 
257.48974 1.48548 -0.00261 
258.54427 1.48484 -0.00260 
259.59880 1.48422 -0.00259 
260.65333 1.48361 -0.00257 
261.70785 1.48301 -0.00256 
262.76238 1.48241 -0.00254 
263.81691 1.48182 -0.00252 
264.87144 1.48125 -0.00251 
265.92596 1.48068 -0.00249 
266.98049 1.48012 -0.00247 
268.03502 1.47956 -0.00245 
269.08954 1.47902 -0.00244 
270.14407 1.47848 -0.00242 
271.19860 1.47795 -0.00240 
272.25313 1.47743 -0.00238 
273.30765 1.47691 -0.00236 
274.36218 1.47640 -0.00234 
275.41671 1.47590 -0.00232 
276.47124 1.47541 -0.00230 
277.52576 1.47492 -0.00227 
278.58029 1.47444 -0.00225 
279.63482 1.47397 -0.00223 
280.68934 1.47350 -0.00221 
281.74387 1.47304 -0.00219 
282.79840 1.47258 -0.00216 
283.85293 1.47213 -0.00214 
284.90745 1.47169 -0.00212 
285.96198 1.47125 -0.00210 
287.01651 1.47082 -0.00207 
288.07104 1.47039 -0.00205 
289.12556 1.46997 -0.00203 
290.18009 1.46956 -0.00200 
291.23462 1.46915 -0.00198 
292.28914 1.46874 -0.00195 
293.34367 1.46834 -0.00193 
294.39820 1.46795 -0.00191 
295.45273 1.46756 -0.00188 
296.50725 1.46718 -0.00186 
297.56178 1.46680 -0.00183 
298.61631 1.46642 -0.00181 
299.67084 1.46605 -0.00178 
300.72536 1.46569 -0.00176 
301.77989 1.46533 -0.00173 
302.83442 1.46497 -0.00171 
303.88894 1.46462 -0.00168 
304.94347 1.46427 -0.00166 
305.99800 1.46393 -0.00163 
307.05253 1.46359 -0.00161 
308.10705 1.46325 -0.00158 
309.16158 1.46292 -0.00156 
310.21611 1.46259 -0.00153 
311.27064 1.46227 -0.00151 
312.32516 1.46195 -0.00148 
313.37969 1.46163 -0.00146 
314.43422 1.46132 -0.00143 
315.48874 1.46101 -0.00141 
316.54327 1.46071 -0.00138 
317.59780 1.46041 -0.00136 
318.65233 1.46011 -0.00133 
319.70685 1.45982 -0.00131 
320.76138 1.45952 -0.00128 
321.81591 1.45924 -0.00126 
322.87044 1.45895 -0.00123 
323.92496 1.45867 -0.00121 
324.97949 1.45839 -0.00118 
326.03402 1.45812 -0.00116 
327.08854 1.45785 -0.00113 
328.14307 1.45758 -0.00111 
329.19760 1.45731 -0.00109 
330.25213 1.45705 -0.00106 
331.30665 1.45679 -0.00104 
332.36118 1.45653 -0.00101 
333.41571 1.45628 -0.00099 
334.47024 1.45603 -0.00096 
335.52476 1.45578 -0.00094 
336.57929 1.45553 -0.00091 
337.63382 1.45529 -0.00089 
338.68834 1.45505 -0.00087 
339.74287 1.45481 -0.00084 
340.79740 1.45457 -0.00082 
341.85193 1.45434 -0.00080 
342.90645 1.45411 -0.00077 
343.96098 1.45388 -0.00075 
345.01551 1.45366 -0.00072 
346.07004 1.45343 -0.00070 
347.12456 1.45321 -0.00068 
348.17909 1.45299 -0.00065 
349.23362 1.45278 -0.00063 
350.28814 1.45256 -0.00061 
351.34267 1.45235 -0.00058 
352.39720 1.45214 -0.00056 
353.45173 1.45193 -0.00054 
354.50625 1.45173 -0.00051 
355.56078 1.45152 -0.00049 
356.61531 1.45132 -0.00047 
357.66983 1.45112 -0.00045 
358.72436 1.45092 -0.00042 
359.77889 1.45073 -0.00040 
360.83342 1.45053 -0.00038 
361.88794 1.45034 -0.00036 
362.94247 1.45015 -0.00033 
363.99700 1.44997 -0.00031 
365.05153 1.44978 -0.00029 
366.10605 1.44960 -0.00027 
367.16058 1.44941 -0.00025 
368.21511 1.44923 -0.00023 
369.26963 1.44905 -0.00020 
370.32416 1.44888 -0.00018 
371.37869 1.44870 -0.00016 
372.43322 1.44853 -0.00014 
373.48774 1.44835 -0.00012 
374.54227 1.44818 -0.00010 
375.59680 1.44802 -0.00008 
376.65133 1.44785 -0.00005 
377.70585 1.44768 -0.00003 
378.76038 1.44752 -0.00001 
379.81491 1.44736 0.00001 
380.86943 1.44719 0.00003 
381.92396 1.44704 0.00005 
382.97849 1.44688 0.00007 
384.03302 1.44672 0.00009 
385.08754 1.44657 0.00011 
386.14207 1.44641 0.00013 
387.19660 1.44626 0.00015 
388.25113 1.44611 0.00017 
389.30565 1.44596 0.00019 
390.36018 1.44581 0.00021 
391.41471 1.44566 0.00023 
392.46923 1.44552 0.00025 
393.52376 1.44537 0.00027 
394.57829 1.44523 0.00029 
395.63282 1.44509 0.00031 
396.68734 1.44495 0.00033 
397.74187 1.44481 0.00035 
398.79640 1.44467 0.00036 
399.85093 1.44453 0.00038 
400.90545 1.44440 0.00040 
401.95998 1.44427 0.00042 
403.01451 1.44413 0.00044 
404.06903 1.44400 0.00046 
405.12356 1.44387 0.00048 
406.17809 1.44374 0.00050 
407.23262 1.44361 0.00051 
408.28714 1.44348 0.00053 
409.34167 1.44336 0.00055 
410.39620 1.44323 0.00057 
411.45073 1.44311 0.00059 
412.50525 1.44298 0.00060 
413.55978 1.44286 0.00062 
414.61431 1.44274 0.00064 
415.66883 1.44262 0.00066 
416.72336 1.44250 0.00067 
417.77789 1.44238 0.00069 
418.83242 1.44227 0.00071 
419.88694 1.44215 0.00073 
420.94147 1.44204 0.00074 
421.99600 1.44192 0.00076 
423.05053 1.44181 0.00078 
424.10505 1.44170 0.00079 
425.15958 1.44158 0.00081 
426.21411 1.44147 0.00083 
427.26863 1.44136 0.00084 
428.32316 1.44126 0.00086 
429.37769 1.44115 0.00088 
430.43222 1.44104 0.00089 
431.48674 1.44094 0.00091 
432.54127 1.44083 0.00093 
433.59580 1.44073 0.00094 
434.65033 1.44062 0.00096 
435.70485 1.44052 0.00097 
436.75938 1.44042 0.00099 
437.81391 1.44032 0.00101 
438.86843 1.44022 0.00102 
439.92296 1.44012 0.00104 
440.97749 1.44002 0.00105 
442.03202 1.43992 0.00107 
443.08654 1.43982 0.00108 
444.14107 1.43973 0.00110 
445.19560 1.43963 0.00112 
446.25013 1.43954 0.00113 
447.30465 1.43944 0.00115 
448.35918 1.43935 0.00116 
449.41371 1.43926 0.00118 
450.46823 1.43916 0.00119 
451.52276 1.43907 0.00120 
452.57729 1.43898 0.00122 
453.63182 1.43889 0.00123 
454.68634 1.43880 0.00125 
455.74087 1.43871 0.00126 
456.79540 1.43863 0.00128 
457.84992 1.43854 0.00129 
458.90445 1.43845 0.00131 
459.95898 1.43837 0.00132 
461.01351 1.43828 0.00133 
462.06803 1.43820 0.00135 
463.12256 1.43811 0.00136 
464.17709 1.43803 0.00138 
465.23162 1.43795 0.00139 
466.28614 1.43786 0.00140 
467.34067 1.43778 0.00142 
468.39520 1.43770 0.00143 
469.44972 1.43762 0.00145 
470.50425 1.43754 0.00146 
471.55878 1.43746 0.00147 
472.61331 1.43738 0.00149 
473.66783 1.43731 0.00150 
474.72236 1.43723 0.00151 
475.77689 1.43715 0.00153 
476.83142 1.43708 0.00154 
477.88594 1.43700 0.00155 
478.94047 1.43692 0.00156 
479.99500 1.43685 0.00158 
481.04952 1.43678 0.00159 
482.10405 1.43670 0.00160 
483.15858 1.43663 0.00162 
484.21311 1.43656 0.00163 
485.26763 1.43648 0.00164 
486.32216 1.43641 0.00165 
487.37669 1.43634 0.00167 
488.43122 1.43627 0.00168 
489.48574 1.43620 0.00169 
490.54027 1.43613 0.00170 
491.59480 1.43606 0.00171 
492.64932 1.43599 0.00173 
493.70385 1.43593 0.00174 
494.75838 1.43586 0.00175 
495.81291 1.43579 0.00176 
496.86743 1.43572 0.00177 
497.92196 1.43566 0.00179 
498.97649 1.43559 0.00180 
500.03102 1.43553 0.00181 
501.08554 1.43546 0.00182 
502.14007 1.43540 0.00183 
503.19460 1.43533 0.00184 
504.24912 1.43527 0.00186 
505.30365 1.43521 0.00187 
506.35818 1.43514 0.00188 
507.41271 1.43508 0.00189 
508.46723 1.43502 0.00190 
509.52176 1.43496 0.00191 
510.57629 1.43490 0.00192 
511.63082 1.43484 0.00193 
512.68534 1.43477 0.00195 
513.73987 1.43471 0.00196 
514.79440 1.43466 0.00197 
515.84892 1.43460 0.00198 
516.90345 1.43454 0.00199 
517.95798 1.43448 0.00200 
519.01251 1.43442 0.00201 
520.06703 1.43436 0.00202 
521.12156 1.43431 0.00203 
522.17609 1.43425 0.00204 
523.23062 1.43419 0.00205 
524.28514 1.43414 0.00206 
525.33967 1.43408 0.00207 
526.39420 1.43403 0.00208 
527.44872 1.43397 0.00209 
528.50325 1.43392 0.00210 
529.55778 1.43386 0.00211 
530.61231 1.43381 0.00212 
531.66683 1.43375 0.00214 
532.72136 1.43370 0.00215 
533.77589 1.43365 0.00216 
534.83042 1.43360 0.00216 
535.88494 1.43354 0.00217 
536.93947 1.43349 0.00218 
537.99400 1.43344 0.00219 
539.04852 1.43339 0.00220 
540.10305 1.43334 0.00221 
541.15758 1.43329 0.00222 
542.21211 1.43324 0.00223 
543.26663 1.43319 0.00224 
544.32116 1.43314 0.00225 
545.37569 1.43309 0.00226 
546.43022 1.43304 0.00227 
547.48474 1.43299 0.00228 
548.53927 1.43294 0.00229 
549.59380 1.43289 0.00230 
550.64832 1.43284 0.00231 
551.70285 1.43280 0.00232 
552.75738 1.43275 0.00233 
553.81191 1.43270 0.00234 
554.86643 1.43266 0.00234 
555.92096 1.43261 0.00235 
556.97549 1.43256 0.00236 
558.03002 1.43252 0.00237 
559.08454 1.43247 0.00238 
560.13907 1.43243 0.00239 
561.19360 1.43238 0.00240 
562.24812 1.43234 0.00241 
563.30265 1.43229 0.00242 
564.35718 1.43225 0.00242 
565.41171 1.43220 0.00243 
566.46623 1.43216 0.00244 
567.52076 1.43212 0.00245 
568.57529 1.43207 0.00246 
569.62981 1.43203 0.00247 
570.68434 1.43199 0.00248 
571.73887 1.43194 0.00248 
572.79340 1.43190 0.00249 
573.84792 1.43186 0.00250 
574.90245 1.43182 0.00251 
575.95698 1.43178 0.00252 
577.01151 1.43174 0.00253 
578.06603 1.43169 0.00253 
579.12056 1.43165 0.00254 
580.17509 1.43161 0.00255 
581.22961 1.43157 0.00256 
582.28414 1.43153 0.00257 
583.33867 1.43149 0.00257 
584.39320 1.43145 0.00258 
585.44772 1.43141 0.00259 
586.50225 1.43137 0.00260 
587.55678 1.43134 0.00261 
588.61131 1.43130 0.00261 
589.66583 1.43126 0.00262 
590.72036 1.43122 0.00263 
591.77489 1.43118 0.00264 
592.82941 1.43114 0.00264 
593.88394 1.43111 0.00265 
594.93847 1.43107 0.00266 
595.99300 1.43103 0.00267 
597.04752 1.43099 0.00267 
598.10205 1.43096 0.00268 
599.15658 1.43092 0.00269 
600.21111 1.43088 0.00270 
601.26563 1.43085 0.00270 
602.32016 1.43081 0.00271 
603.37469 1.43078 0.00272 
604.42921 1.43074 0.00273 
605.48374 1.43071 0.00273 
606.53827 1.43067 0.00274 
607.59280 1.43064 0.00275 
608.64732 1.43060 0.00275 
609.70185 1.43057 0.00276 
610.75638 1.43053 0.00277 
611.81091 1.43050 0.00278 
612.86543 1.43046 0.00278 
613.91996 1.43043 0.00279 
614.97449 1.43040 0.00280 
616.02901 1.43036 0.00280 
617.08354 1.43033 0.00281 
618.13807 1.43030 0.00282 
619.19260 1.43026 0.00282 
620.24712 1.43023 0.00283 
621.30165 1.43020 0.00284 
622.35618 1.43016 0.00284 
623.41071 1.43013 0.00285 
624.46523 1.43010 0.00286 
625.51976 1.43007 0.00286 
626.57429 1.43004 0.00287 
627.62881 1.43001 0.00288 
628.68334 1.42997 0.00288 
629.73787 1.42994 0.00289 
630.79240 1.42991 0.00290 
631.84692 1.42988 0.00290 
632.90145 1.42985 0.00291 
633.95598 1.42982 0.00292 
635.01051 1.42979 0.00292 
636.06503 1.42976 0.00293 
637.11956 1.42973 0.00294 
638.17409 1.42970 0.00294 
639.22861 1.42967 0.00295 
640.28314 1.42964 0.00295 
641.33767 1.42961 0.00296 
642.39220 1.42958 0.00297 
643.44672 1.42955 0.00297 
644.50125 1.42952 0.00298 
645.55578 1.42949 0.00298 
646.61031 1.42946 0.00299 
647.66483 1.42944 0.00300 
648.71936 1.42941 0.00300 
649.77389 1.42938 0.00301 
650.82841 1.42935 0.00301 
651.88294 1.42932 0.00302 
652.93747 1.42929 0.00303 
653.99200 1.42927 0.00303 
655.04652 1.42924 0.00304 
656.10105 1.42921 0.00304 
657.15558 1.42918 0.00305 
658.21011 1.42916 0.00306 
659.26463 1.42913 0.00306 
660.31916 1.42910 0.00307 
661.37369 1.42908 0.00307 
662.42821 1.42905 0.00308 
663.48274 1.42902 0.00308 
664.53727 1.42900 0.00309 
665.59180 1.42897 0.00310 
666.64632 1.42894 0.00310 
667.70085 1.42892 0.00311 
668.75538 1.42889 0.00311 
669.80990 1.42887 0.00312 
670.86443 1.42884 0.00312 
671.91896 1.42882 0.00313 
672.97349 1.42879 0.00313 
674.02801 1.42876 0.00314 
675.08254 1.42874 0.00315 
676.13707 1.42871 0.00315 
677.19160 1.42869 0.00316 
678.24612 1.42867 0.00316 
679.30065 1.42864 0.00317 
680.35518 1.42862 0.00317 
681.40970 1.42859 0.00318 
682.46423 1.42857 0.00318 
683.51876 1.42854 0.00319 
684.57329 1.42852 0.00319 
685.62781 1.42850 0.00320 
686.68234 1.42847 0.00320 
687.73687 1.42845 0.00321 
688.79140 1.42842 0.00321 
689.84592 1.42840 0.00322 
690.90045 1.42838 0.00322 
691.95498 1.42835 0.00323 
693.00950 1.42833 0.00323 
694.06403 1.42831 0.00324 
695.11856 1.42828 0.00324 
696.17309 1.42826 0.00325 
697.22761 1.42824 0.00325 
698.28214 1.42822 0.00326 
699.33667 1.42819 0.00326 
700.39120 1.42817 0.00327 
701.44572 1.42815 0.00327 
702.50025 1.42813 0.00328 
703.55478 1.42811 0.00328 
704.60930 1.42808 0.00329 
705.66383 1.42806 0.00329 
706.71836 1.42804 0.00330 
707.77289 1.42802 0.00330 
708.82741 1.42800 0.00331 
709.88194 1.42798 0.00331 
710.93647 1.42795 0.00332 
711.99100 1.42793 0.00332 
713.04552 1.42791 0.00333 
714.10005 1.42789 0.00333 
715.15458 1.42787 0.00333 
716.20910 1.42785 0.00334 
717.26363 1.42783 0.00334 
718.31816 1.42781 0.00335 
719.37269 1.42779 0.00335 
720.42721 1.42777 0.00336 
721.48174 1.42775 0.00336 
722.53627 1.42773 0.00337 
723.59080 1.42771 0.00337 
724.64532 1.42769 0.00338 
725.69985 1.42767 0.00338 
726.75438 1.42765 0.00338 
727.80890 1.42763 0.00339 
728.86343 1.42761 0.00339 
729.91796 1.42759 0.00340 
730.97249 1.42757 0.00340 
732.02701 1.42755 0.00341 
733.08154 1.42753 0.00341 
734.13607 1.42751 0.00341 
735.19060 1.42749 0.00342 
736.24512 1.42747 0.00342 
737.29965 1.42745 0.00343 
738.35418 1.42743 0.00343 
739.40870 1.42741 0.00344 
740.46323 1.42739 0.00344 
741.51776 1.42738 0.00344 
742.57229 1.42736 0.00345 
743.62681 1.42734 0.00345 
744.68134 1.42732 0.00346 
745.73587 1.42730 0.00346 
746.79040 1.42728 0.00347 
747.84492 1.42726 0.00347 
748.89945 1.42725 0.00347 
749.95398 1.42723 0.00348 
751.00850 1.42721 0.00348 
752.06303 1.42719 0.00349 
753.11756 1.42717 0.00349 
754.17209 1.42716 0.00349 
755.22661 1.42714 0.00350 
756.28114 1.42712 0.00350 
757.33567 1.42710 0.00351 
758.39020 1.42709 0.00351 
759.44472 1.42707 0.00351 
760.49925 1.42705 0.00352 
761.55378 1.42703 0.00352 
762.60830 1.42702 0.00352 
763.66283 1.42700 0.00353 
764.71736 1.42698 0.00353 
765.77189 1.42697 0.00354 
766.82641 1.42695 0.00354 
767.88094 1.42693 0.00354 
768.93547 1.42692 0.00355 
769.98999 1.42690 0.00355 
771.04452 1.42688 0.00356 
772.09905 1.42687 0.00356 
773.15358 1.42685 0.00356 
774.20810 1.42683 0.00357 
775.26263 1.42682 0.00357 
776.31716 1.42680 0.00357 
777.37169 1.42679 0.00358 
778.42621 1.42677 0.00358 
779.48074 1.42675 0.00358 
780.53527 1.42674 0.00359 
781.58979 1.42672 0.00359 
782.64432 1.42671 0.00360 
783.69885 1.42669 0.00360 
784.75338 1.42667 0.00360 
785.80790 1.42666 0.00361 
786.86243 1.42664 0.00361 
787.91696 1.42663 0.00361 
788.97149 1.42661 0.00362 
790.02601 1.42660 0.00362 
791.08054 1.42658 0.00362 
792.13507 1.42657 0.00363 
793.18959 1.42655 0.00363 
794.24412 1.42654 0.00363 
795.29865 1.42652 0.00364 
796.35318 1.42651 0.00364 
797.40770 1.42649 0.00364 
798.46223 1.42648 0.00365 
799.51676 1.42646 0.00365 
800.57129 1.42645 0.00365 
801.62581 1.42643 0.00366 
802.68034 1.42642 0.00366 
803.73487 1.42640 0.00366 
804.78939 1.42639 0.00367 
805.84392 1.42637 0.00367 
806.89845 1.42636 0.00367 
807.95298 1.42634 0.00368 
809.00750 1.42633 0.00368 
810.06203 1.42632 0.00368 
811.11656 1.42630 0.00369 
812.17109 1.42629 0.00369 
813.22561 1.42627 0.00369 
814.28014 1.42626 0.00370 
815.33467 1.42625 0.00370 
816.38919 1.42623 0.00370 
817.44372 1.42622 0.00371 
818.49825 1.42620 0.00371 
819.55278 1.42619 0.00371 
820.60730 1.42618 0.00372 
821.66183 1.42616 0.00372 
822.71636 1.42615 0.00372 
823.77089 1.42614 0.00373 
824.82541 1.42612 0.00373 
825.87994 1.42611 0.00373 
826.93447 1.42610 0.00374 
827.98899 1.42608 0.00374 
829.04352 1.42607 0.00374 
830.09805 1.42606 0.00374 
831.15258 1.42604 0.00375 
832.20710 1.42603 0.00375 
833.26163 1.42602 0.00375 
834.31616 1.42600 0.00376 
835.37069 1.42599 0.00376 
836.42521 1.42598 0.00376 
837.47974 1.42597 0.00377 
838.53427 1.42595 0.00377 
839.58879 1.42594 0.00377 
840.64332 1.42593 0.00377 
841.69785 1.42591 0.00378 
842.75238 1.42590 0.00378 
843.80690 1.42589 0.00378 
844.86143 1.42588 0.00379 
845.91596 1.42586 0.00379 
846.97049 1.42585 0.00379 
848.02501 1.42584 0.00380 
849.07954 1.42583 0.00380 
850.13407 1.42582 0.00380 
851.18859 1.42580 0.00380 
852.24312 1.42579 0.00381 
853.29765 1.42578 0.00381 
854.35218 1.42577 0.00381 
855.40670 1.42575 0.00381 
856.46123 1.42574 0.00382 
857.51576 1.42573 0.00382 
858.57029 1.42572 0.00382 
859.62481 1.42571 0.00383 
860.67934 1.42570 0.00383 
861.73387 1.42568 0.00383 
862.78839 1.42567 0.00383 
863.84292 1.42566 0.00384 
864.89745 1.42565 0.00384 
865.95198 1.42564 0.00384 
867.00650 1.42563 0.00385 
868.06103 1.42561 0.00385 
869.11556 1.42560 0.00385 
870.17009 1.42559 0.00385 
871.22461 1.42558 0.00386 
872.27914 1.42557 0.00386 
873.33367 1.42556 0.00386 
874.38819 1.42555 0.00386 
875.44272 1.42554 0.00387 
876.49725 1.42552 0.00387 
877.55178 1.42551 0.00387 
878.60630 1.42550 0.00387 
879.66083 1.42549 0.00388 
880.71536 1.42548 0.00388 
881.76988 1.42547 0.00388 
882.82441 1.42546 0.00388 
883.87894 1.42545 0.00389 
884.93347 1.42544 0.00389 
885.98799 1.42543 0.00389 
887.04252 1.42541 0.00389 
888.09705 1.42540 0.00390 
889.15158 1.42539 0.00390 
890.20610 1.42538 0.00390 
891.26063 1.42537 0.00390 
892.31516 1.42536 0.00391 
893.36968 1.42535 0.00391 
894.42421 1.42534 0.00391 
895.47874 1.42533 0.00391 
896.53327 1.42532 0.00392 
897.58779 1.42531 0.00392 
898.64232 1.42530 0.00392 
899.69685 1.42529 0.00392 
900.75138 1.42528 0.00393 
901.80590 1.42527 0.00393 
902.86043 1.42526 0.00393 
903.91496 1.42525 0.00393 
904.96948 1.42524 0.00394 
906.02401 1.42523 0.00394 
907.07854 1.42522 0.00394 
908.13307 1.42521 0.00394 
909.18759 1.42520 0.00395 
910.24212 1.42519 0.00395 
911.29665 1.42518 0.00395 
912.35118 1.42517 0.00395 
913.40570 1.42516 0.00396 
914.46023 1.42515 0.00396 
915.51476 1.42514 0.00396 
916.56928 1.42513 0.00396 
917.62381 1.42512 0.00396 
918.67834 1.42511 0.00397 
919.73287 1.42510 0.00397 
920.78739 1.42509 0.00397 
921.84192 1.42508 0.00397 
922.89645 1.42507 0.00398 
923.95098 1.42506 0.00398 
925.00550 1.42505 0.00398 
926.06003 1.42504 0.00398 
927.11456 1.42503 0.00398 
928.16908 1.42502 0.00399 
929.22361 1.42502 0.00399 
930.27814 1.42501 0.00399 
931.33267 1.42500 0.00399 
932.38719 1.42499 0.00400 
933.44172 1.42498 0.00400 
934.49625 1.42497 0.00400 
935.55078 1.42496 0.00400 
936.60530 1.42495 0.00400 
937.65983 1.42494 0.00401 
938.71436 1.42493 0.00401 
939.76888 1.42492 0.00401 
940.82341 1.42492 0.00401 
941.87794 1.42491 0.00402 
942.93247 1.42490 0.00402 
943.98699 1.42489 0.00402 
945.04152 1.42488 0.00402 
946.09605 1.42487 0.00402 
947.15058 1.42486 0.00403 
948.20510 1.42485 0.00403 
949.25963 1.42484 0.00403 
950.31416 1.42484 0.00403 
951.36868 1.42483 0.00403 
952.42321 1.42482 0.00404 
953.47774 1.42481 0.00404 
954.53227 1.42480 0.00404 
955.58679 1.42479 0.00404 
956.64132 1.42478 0.00404 
957.69585 1.42478 0.00405 
958.75038 1.42477 0.00405 
959.80490 1.42476 0.00405 
960.85943 1.42475 0.00405 
