; WAVELENGTH MAT._REFRACTIVE_INDEX MAT._ABSORPTION
200.00000 1.51725 0.00000 
200.36018 1.51684 0.00000 
200.72036 1.51643 0.00000 
201.08054 1.51603 0.00000 
201.44072 1.51562 0.00000 
201.80090 1.51522 0.00000 
202.16108 1.51482 0.00000 
202.52126 1.51442 0.00000 
202.88144 1.51403 0.00000 
203.24162 1.51363 0.00000 
203.60180 1.51324 0.00000 
203.96198 1.51285 0.00000 
204.32216 1.51247 0.00000 
204.68234 1.51208 0.00000 
205.04252 1.51170 0.00000 
205.40270 1.51132 0.00000 
205.76288 1.51094 0.00000 
206.12306 1.51056 0.00000 
206.48324 1.51019 0.00000 
206.84342 1.50982 0.00000 
207.20360 1.50944 0.00000 
207.56378 1.50908 0.00000 
207.92396 1.50871 0.00000 
208.28414 1.50834 0.00000 
208.64432 1.50798 0.00000 
209.00450 1.50762 0.00000 
209.36468 1.50726 0.00000 
209.72486 1.50690 0.00000 
210.08504 1.50654 0.00000 
210.44522 1.50619 0.00000 
210.80540 1.50584 0.00000 
211.16558 1.50549 0.00000 
211.52576 1.50514 0.00000 
211.88594 1.50479 0.00000 
212.24612 1.50445 0.00000 
212.60630 1.50410 0.00000 
212.96648 1.50376 0.00000 
213.32666 1.50342 0.00000 
213.68684 1.50308 0.00000 
214.04702 1.50275 0.00000 
214.40720 1.50241 0.00000 
214.76738 1.50208 0.00000 
215.12756 1.50175 0.00000 
215.48774 1.50142 0.00000 
215.84792 1.50109 0.00000 
216.20810 1.50076 0.00000 
216.56828 1.50044 0.00000 
216.92846 1.50011 0.00000 
217.28864 1.49979 0.00000 
217.64882 1.49947 0.00000 
218.00900 1.49915 0.00000 
218.36918 1.49884 0.00000 
218.72936 1.49852 0.00000 
219.08954 1.49821 0.00000 
219.44972 1.49790 0.00000 
219.80990 1.49758 0.00000 
220.17009 1.49728 0.00000 
220.53027 1.49697 0.00000 
220.89045 1.49666 0.00000 
221.25063 1.49636 0.00000 
221.61081 1.49605 0.00000 
221.97099 1.49575 0.00000 
222.33117 1.49545 0.00000 
222.69135 1.49515 0.00000 
223.05153 1.49486 0.00000 
223.41171 1.49456 0.00000 
223.77189 1.49427 0.00000 
224.13207 1.49397 0.00000 
224.49225 1.49368 0.00000 
224.85243 1.49339 0.00000 
225.21261 1.49310 0.00000 
225.57279 1.49281 0.00000 
225.93297 1.49253 0.00000 
226.29315 1.49224 0.00000 
226.65333 1.49196 0.00000 
227.01351 1.49168 0.00000 
227.37369 1.49140 0.00000 
227.73387 1.49112 0.00000 
228.09405 1.49084 0.00000 
228.45423 1.49056 0.00000 
228.81441 1.49029 0.00000 
229.17459 1.49001 0.00000 
229.53477 1.48974 0.00000 
229.89495 1.48947 0.00000 
230.25513 1.48920 0.00000 
230.61531 1.48893 0.00000 
230.97549 1.48866 0.00000 
231.33567 1.48839 0.00000 
231.69585 1.48813 0.00000 
232.05603 1.48787 0.00000 
232.41621 1.48760 0.00000 
232.77639 1.48734 0.00000 
233.13657 1.48708 0.00000 
233.49675 1.48682 0.00000 
233.85693 1.48656 0.00000 
234.21711 1.48631 0.00000 
234.57729 1.48605 0.00000 
234.93747 1.48580 0.00000 
235.29765 1.48554 0.00000 
235.65783 1.48529 0.00000 
236.01801 1.48504 0.00000 
236.37819 1.48479 0.00000 
236.73837 1.48454 0.00000 
237.09855 1.48429 0.00000 
237.45873 1.48405 0.00000 
237.81891 1.48380 0.00000 
238.17909 1.48356 0.00000 
238.53927 1.48331 0.00000 
238.89945 1.48307 0.00000 
239.25963 1.48283 0.00000 
239.61981 1.48259 0.00000 
239.97999 1.48235 0.00000 
240.34017 1.48212 0.00000 
240.70035 1.48188 0.00000 
241.06053 1.48164 0.00000 
241.42071 1.48141 0.00000 
241.78089 1.48118 0.00000 
242.14107 1.48094 0.00000 
242.50125 1.48071 0.00000 
242.86143 1.48048 0.00000 
243.22161 1.48025 0.00000 
243.58179 1.48002 0.00000 
243.94197 1.47980 0.00000 
244.30215 1.47957 0.00000 
244.66233 1.47935 0.00000 
245.02251 1.47912 0.00000 
245.38269 1.47890 0.00000 
245.74287 1.47868 0.00000 
246.10305 1.47845 0.00000 
246.46323 1.47823 0.00000 
246.82341 1.47801 0.00000 
247.18359 1.47780 0.00000 
247.54377 1.47758 0.00000 
247.90395 1.47736 0.00000 
248.26413 1.47715 0.00000 
248.62431 1.47693 0.00000 
248.98449 1.47672 0.00000 
249.34467 1.47650 0.00000 
249.70485 1.47629 0.00000 
250.06503 1.47608 0.00000 
250.42521 1.47587 0.00000 
250.78539 1.47566 0.00000 
251.14557 1.47545 0.00000 
251.50575 1.47525 0.00000 
251.86593 1.47504 0.00000 
252.22611 1.47484 0.00000 
252.58629 1.47463 0.00000 
252.94647 1.47443 0.00000 
253.30665 1.47422 0.00000 
253.66683 1.47402 0.00000 
254.02701 1.47382 0.00000 
254.38719 1.47362 0.00000 
254.74737 1.47342 0.00000 
255.10755 1.47322 0.00000 
255.46773 1.47302 0.00000 
255.82791 1.47283 0.00000 
256.18809 1.47263 0.00000 
256.54827 1.47243 0.00000 
256.90845 1.47224 0.00000 
257.26863 1.47205 0.00000 
257.62881 1.47185 0.00000 
257.98899 1.47166 0.00000 
258.34917 1.47147 0.00000 
258.70935 1.47128 0.00000 
259.06953 1.47109 0.00000 
259.42971 1.47090 0.00000 
259.78989 1.47071 0.00000 
260.15008 1.47053 0.00000 
260.51026 1.47034 0.00000 
260.87044 1.47015 0.00000 
261.23062 1.46997 0.00000 
261.59080 1.46978 0.00000 
261.95098 1.46960 0.00000 
262.31116 1.46942 0.00000 
262.67134 1.46924 0.00000 
263.03152 1.46905 0.00000 
263.39170 1.46887 0.00000 
263.75188 1.46869 0.00000 
264.11206 1.46851 0.00000 
264.47224 1.46834 0.00000 
264.83242 1.46816 0.00000 
265.19260 1.46798 0.00000 
265.55278 1.46781 0.00000 
265.91296 1.46763 0.00000 
266.27314 1.46746 0.00000 
266.63332 1.46728 0.00000 
266.99350 1.46711 0.00000 
267.35368 1.46694 0.00000 
267.71386 1.46676 0.00000 
268.07404 1.46659 0.00000 
268.43422 1.46642 0.00000 
268.79440 1.46625 0.00000 
269.15458 1.46608 0.00000 
269.51476 1.46591 0.00000 
269.87494 1.46575 0.00000 
270.23512 1.46558 0.00000 
270.59530 1.46541 0.00000 
270.95548 1.46525 0.00000 
271.31566 1.46508 0.00000 
271.67584 1.46492 0.00000 
272.03602 1.46475 0.00000 
272.39620 1.46459 0.00000 
272.75638 1.46443 0.00000 
273.11656 1.46427 0.00000 
273.47674 1.46410 0.00000 
273.83692 1.46394 0.00000 
274.19710 1.46378 0.00000 
274.55728 1.46362 0.00000 
274.91746 1.46347 0.00000 
275.27764 1.46331 0.00000 
275.63782 1.46315 0.00000 
275.99800 1.46299 0.00000 
276.35818 1.46284 0.00000 
276.71836 1.46268 0.00000 
277.07854 1.46253 0.00000 
277.43872 1.46237 0.00000 
277.79890 1.46222 0.00000 
278.15908 1.46206 0.00000 
278.51926 1.46191 0.00000 
278.87944 1.46176 0.00000 
279.23962 1.46161 0.00000 
279.59980 1.46146 0.00000 
279.95998 1.46131 0.00000 
280.32016 1.46116 0.00000 
280.68034 1.46101 0.00000 
281.04052 1.46086 0.00000 
281.40070 1.46071 0.00000 
281.76088 1.46056 0.00000 
282.12106 1.46042 0.00000 
282.48124 1.46027 0.00000 
282.84142 1.46013 0.00000 
283.20160 1.45998 0.00000 
283.56178 1.45984 0.00000 
283.92196 1.45969 0.00000 
284.28214 1.45955 0.00000 
284.64232 1.45940 0.00000 
285.00250 1.45926 0.00000 
285.36268 1.45912 0.00000 
285.72286 1.45898 0.00000 
286.08304 1.45884 0.00000 
286.44322 1.45870 0.00000 
286.80340 1.45856 0.00000 
287.16358 1.45842 0.00000 
287.52376 1.45828 0.00000 
287.88394 1.45814 0.00000 
288.24412 1.45800 0.00000 
288.60430 1.45787 0.00000 
288.96448 1.45773 0.00000 
289.32466 1.45759 0.00000 
289.68484 1.45746 0.00000 
290.04502 1.45732 0.00000 
290.40520 1.45719 0.00000 
290.76538 1.45705 0.00000 
291.12556 1.45692 0.00000 
291.48574 1.45679 0.00000 
291.84592 1.45665 0.00000 
292.20610 1.45652 0.00000 
292.56628 1.45639 0.00000 
292.92646 1.45626 0.00000 
293.28664 1.45613 0.00000 
293.64682 1.45600 0.00000 
294.00700 1.45587 0.00000 
294.36718 1.45574 0.00000 
294.72736 1.45561 0.00000 
295.08754 1.45548 0.00000 
295.44772 1.45535 0.00000 
295.80790 1.45523 0.00000 
296.16808 1.45510 0.00000 
296.52826 1.45497 0.00000 
296.88844 1.45485 0.00000 
297.24862 1.45472 0.00000 
297.60880 1.45460 0.00000 
297.96898 1.45447 0.00000 
298.32916 1.45435 0.00000 
298.68934 1.45422 0.00000 
299.04952 1.45410 0.00000 
299.40970 1.45398 0.00000 
299.76988 1.45386 0.00000 
300.13007 1.45373 0.00000 
300.49025 1.45361 0.00000 
300.85043 1.45349 0.00000 
301.21061 1.45337 0.00000 
301.57079 1.45325 0.00000 
301.93097 1.45313 0.00000 
302.29115 1.45301 0.00000 
302.65133 1.45289 0.00000 
303.01151 1.45277 0.00000 
303.37169 1.45266 0.00000 
303.73187 1.45254 0.00000 
304.09205 1.45242 0.00000 
304.45223 1.45230 0.00000 
304.81241 1.45219 0.00000 
305.17259 1.45207 0.00000 
305.53277 1.45196 0.00000 
305.89295 1.45184 0.00000 
306.25313 1.45173 0.00000 
306.61331 1.45161 0.00000 
306.97349 1.45150 0.00000 
307.33367 1.45138 0.00000 
307.69385 1.45127 0.00000 
308.05403 1.45116 0.00000 
308.41421 1.45104 0.00000 
308.77439 1.45093 0.00000 
309.13457 1.45082 0.00000 
309.49475 1.45071 0.00000 
309.85493 1.45060 0.00000 
310.21511 1.45049 0.00000 
310.57529 1.45038 0.00000 
310.93547 1.45027 0.00000 
311.29565 1.45016 0.00000 
311.65583 1.45005 0.00000 
312.01601 1.44994 0.00000 
312.37619 1.44983 0.00000 
312.73637 1.44973 0.00000 
313.09655 1.44962 0.00000 
313.45673 1.44951 0.00000 
313.81691 1.44940 0.00000 
314.17709 1.44930 0.00000 
314.53727 1.44919 0.00000 
314.89745 1.44909 0.00000 
315.25763 1.44898 0.00000 
315.61781 1.44888 0.00000 
315.97799 1.44877 0.00000 
316.33817 1.44867 0.00000 
316.69835 1.44856 0.00000 
317.05853 1.44846 0.00000 
317.41871 1.44836 0.00000 
317.77889 1.44825 0.00000 
318.13907 1.44815 0.00000 
318.49925 1.44805 0.00000 
318.85943 1.44795 0.00000 
319.21961 1.44785 0.00000 
319.57979 1.44775 0.00000 
319.93997 1.44765 0.00000 
320.30015 1.44755 0.00000 
320.66033 1.44745 0.00000 
321.02051 1.44735 0.00000 
321.38069 1.44725 0.00000 
321.74087 1.44715 0.00000 
322.10105 1.44705 0.00000 
322.46123 1.44695 0.00000 
322.82141 1.44685 0.00000 
323.18159 1.44675 0.00000 
323.54177 1.44666 0.00000 
323.90195 1.44656 0.00000 
324.26213 1.44646 0.00000 
324.62231 1.44637 0.00000 
324.98249 1.44627 0.00000 
325.34267 1.44618 0.00000 
325.70285 1.44608 0.00000 
326.06303 1.44598 0.00000 
326.42321 1.44589 0.00000 
326.78339 1.44580 0.00000 
327.14357 1.44570 0.00000 
327.50375 1.44561 0.00000 
327.86393 1.44551 0.00000 
328.22411 1.44542 0.00000 
328.58429 1.44533 0.00000 
328.94447 1.44523 0.00000 
329.30465 1.44514 0.00000 
329.66483 1.44505 0.00000 
330.02501 1.44496 0.00000 
330.38519 1.44487 0.00000 
330.74537 1.44478 0.00000 
331.10555 1.44469 0.00000 
331.46573 1.44459 0.00000 
331.82591 1.44450 0.00000 
332.18609 1.44441 0.00000 
332.54627 1.44432 0.00000 
332.90645 1.44424 0.00000 
333.26663 1.44415 0.00000 
333.62681 1.44406 0.00000 
333.98699 1.44397 0.00000 
334.34717 1.44388 0.00000 
334.70735 1.44379 0.00000 
335.06753 1.44371 0.00000 
335.42771 1.44362 0.00000 
335.78789 1.44353 0.00000 
336.14807 1.44344 0.00000 
336.50825 1.44336 0.00000 
336.86843 1.44327 0.00000 
337.22861 1.44319 0.00000 
337.58879 1.44310 0.00000 
337.94897 1.44301 0.00000 
338.30915 1.44293 0.00000 
338.66933 1.44284 0.00000 
339.02951 1.44276 0.00000 
339.38969 1.44268 0.00000 
339.74987 1.44259 0.00000 
340.11006 1.44251 0.00000 
340.47024 1.44242 0.00000 
340.83042 1.44234 0.00000 
341.19060 1.44226 0.00000 
341.55078 1.44217 0.00000 
341.91096 1.44209 0.00000 
342.27114 1.44201 0.00000 
342.63132 1.44193 0.00000 
342.99150 1.44185 0.00000 
343.35168 1.44176 0.00000 
343.71186 1.44168 0.00000 
344.07204 1.44160 0.00000 
344.43222 1.44152 0.00000 
344.79240 1.44144 0.00000 
345.15258 1.44136 0.00000 
345.51276 1.44128 0.00000 
345.87294 1.44120 0.00000 
346.23312 1.44112 0.00000 
346.59330 1.44104 0.00000 
346.95348 1.44096 0.00000 
347.31366 1.44089 0.00000 
347.67384 1.44081 0.00000 
348.03402 1.44073 0.00000 
348.39420 1.44065 0.00000 
348.75438 1.44057 0.00000 
349.11456 1.44050 0.00000 
349.47474 1.44042 0.00000 
349.83492 1.44034 0.00000 
350.19510 1.44026 0.00000 
350.55528 1.44019 0.00000 
350.91546 1.44011 0.00000 
351.27564 1.44004 0.00000 
351.63582 1.43996 0.00000 
351.99600 1.43988 0.00000 
352.35618 1.43981 0.00000 
352.71636 1.43973 0.00000 
353.07654 1.43966 0.00000 
353.43672 1.43958 0.00000 
353.79690 1.43951 0.00000 
354.15708 1.43944 0.00000 
354.51726 1.43936 0.00000 
354.87744 1.43929 0.00000 
355.23762 1.43921 0.00000 
355.59780 1.43914 0.00000 
355.95798 1.43907 0.00000 
356.31816 1.43899 0.00000 
356.67834 1.43892 0.00000 
357.03852 1.43885 0.00000 
357.39870 1.43878 0.00000 
357.75888 1.43871 0.00000 
358.11906 1.43863 0.00000 
358.47924 1.43856 0.00000 
358.83942 1.43849 0.00000 
359.19960 1.43842 0.00000 
359.55978 1.43835 0.00000 
359.91996 1.43828 0.00000 
360.28014 1.43821 0.00000 
360.64032 1.43814 0.00000 
361.00050 1.43807 0.00000 
361.36068 1.43800 0.00000 
361.72086 1.43793 0.00000 
362.08104 1.43786 0.00000 
362.44122 1.43779 0.00000 
362.80140 1.43772 0.00000 
363.16158 1.43765 0.00000 
363.52176 1.43758 0.00000 
363.88194 1.43751 0.00000 
364.24212 1.43745 0.00000 
364.60230 1.43738 0.00000 
364.96248 1.43731 0.00000 
365.32266 1.43724 0.00000 
365.68284 1.43717 0.00000 
366.04302 1.43711 0.00000 
366.40320 1.43704 0.00000 
366.76338 1.43697 0.00000 
367.12356 1.43691 0.00000 
367.48374 1.43684 0.00000 
367.84392 1.43677 0.00000 
368.20410 1.43671 0.00000 
368.56428 1.43664 0.00000 
368.92446 1.43658 0.00000 
369.28464 1.43651 0.00000 
369.64482 1.43645 0.00000 
370.00500 1.43638 0.00000 
370.36518 1.43632 0.00000 
370.72536 1.43625 0.00000 
371.08554 1.43619 0.00000 
371.44572 1.43612 0.00000 
371.80590 1.43606 0.00000 
372.16608 1.43599 0.00000 
372.52626 1.43593 0.00000 
372.88644 1.43587 0.00000 
373.24662 1.43580 0.00000 
373.60680 1.43574 0.00000 
373.96698 1.43568 0.00000 
374.32716 1.43561 0.00000 
374.68734 1.43555 0.00000 
375.04752 1.43549 0.00000 
375.40770 1.43543 0.00000 
375.76788 1.43537 0.00000 
376.12806 1.43530 0.00000 
376.48824 1.43524 0.00000 
376.84842 1.43518 0.00000 
377.20860 1.43512 0.00000 
377.56878 1.43506 0.00000 
377.92896 1.43500 0.00000 
378.28914 1.43494 0.00000 
378.64932 1.43487 0.00000 
379.00950 1.43481 0.00000 
379.36968 1.43475 0.00000 
379.72986 1.43469 0.00000 
380.09005 1.43463 0.00000 
380.45023 1.43457 0.00000 
380.81041 1.43451 0.00000 
381.17059 1.43445 0.00000 
381.53077 1.43439 0.00000 
381.89095 1.43434 0.00000 
382.25113 1.43428 0.00000 
382.61131 1.43422 0.00000 
382.97149 1.43416 0.00000 
383.33167 1.43410 0.00000 
383.69185 1.43404 0.00000 
384.05203 1.43398 0.00000 
384.41221 1.43393 0.00000 
384.77239 1.43387 0.00000 
385.13257 1.43381 0.00000 
385.49275 1.43375 0.00000 
385.85293 1.43370 0.00000 
386.21311 1.43364 0.00000 
386.57329 1.43358 0.00000 
386.93347 1.43352 0.00000 
387.29365 1.43347 0.00000 
387.65383 1.43341 0.00000 
388.01401 1.43335 0.00000 
388.37419 1.43330 0.00000 
388.73437 1.43324 0.00000 
389.09455 1.43319 0.00000 
389.45473 1.43313 0.00000 
389.81491 1.43307 0.00000 
390.17509 1.43302 0.00000 
390.53527 1.43296 0.00000 
390.89545 1.43291 0.00000 
391.25563 1.43285 0.00000 
391.61581 1.43280 0.00000 
391.97599 1.43274 0.00000 
392.33617 1.43269 0.00000 
392.69635 1.43263 0.00000 
393.05653 1.43258 0.00000 
393.41671 1.43253 0.00000 
393.77689 1.43247 0.00000 
394.13707 1.43242 0.00000 
394.49725 1.43236 0.00000 
394.85743 1.43231 0.00000 
395.21761 1.43226 0.00000 
395.57779 1.43220 0.00000 
395.93797 1.43215 0.00000 
396.29815 1.43210 0.00000 
396.65833 1.43205 0.00000 
397.01851 1.43199 0.00000 
397.37869 1.43194 0.00000 
397.73887 1.43189 0.00000 
398.09905 1.43184 0.00000 
398.45923 1.43178 0.00000 
398.81941 1.43173 0.00000 
399.17959 1.43168 0.00000 
399.53977 1.43163 0.00000 
399.89995 1.43158 0.00000 
400.26013 1.43153 0.00000 
400.62031 1.43147 0.00000 
400.98049 1.43142 0.00000 
401.34067 1.43137 0.00000 
401.70085 1.43132 0.00000 
402.06103 1.43127 0.00000 
402.42121 1.43122 0.00000 
402.78139 1.43117 0.00000 
403.14157 1.43112 0.00000 
403.50175 1.43107 0.00000 
403.86193 1.43102 0.00000 
404.22211 1.43097 0.00000 
404.58229 1.43092 0.00000 
404.94247 1.43087 0.00000 
405.30265 1.43082 0.00000 
405.66283 1.43077 0.00000 
406.02301 1.43072 0.00000 
406.38319 1.43067 0.00000 
406.74337 1.43062 0.00000 
407.10355 1.43057 0.00000 
407.46373 1.43053 0.00000 
407.82391 1.43048 0.00000 
408.18409 1.43043 0.00000 
408.54427 1.43038 0.00000 
408.90445 1.43033 0.00000 
409.26463 1.43028 0.00000 
409.62481 1.43024 0.00000 
409.98499 1.43019 0.00000 
410.34517 1.43014 0.00000 
410.70535 1.43009 0.00000 
411.06553 1.43005 0.00000 
411.42571 1.43000 0.00000 
411.78589 1.42995 0.00000 
412.14607 1.42990 0.00000 
412.50625 1.42986 0.00000 
412.86643 1.42981 0.00000 
413.22661 1.42976 0.00000 
413.58679 1.42972 0.00000 
413.94697 1.42967 0.00000 
414.30715 1.42962 0.00000 
414.66733 1.42958 0.00000 
415.02751 1.42953 0.00000 
415.38769 1.42949 0.00000 
415.74787 1.42944 0.00000 
416.10805 1.42939 0.00000 
416.46823 1.42935 0.00000 
416.82841 1.42930 0.00000 
417.18859 1.42926 0.00000 
417.54877 1.42921 0.00000 
417.90895 1.42917 0.00000 
418.26913 1.42912 0.00000 
418.62931 1.42908 0.00000 
418.98949 1.42903 0.00000 
419.34967 1.42899 0.00000 
419.70985 1.42894 0.00000 
420.07004 1.42890 0.00000 
420.43022 1.42885 0.00000 
420.79040 1.42881 0.00000 
421.15058 1.42877 0.00000 
421.51076 1.42872 0.00000 
421.87094 1.42868 0.00000 
422.23112 1.42863 0.00000 
422.59130 1.42859 0.00000 
422.95148 1.42855 0.00000 
423.31166 1.42850 0.00000 
423.67184 1.42846 0.00000 
424.03202 1.42842 0.00000 
424.39220 1.42837 0.00000 
424.75238 1.42833 0.00000 
425.11256 1.42829 0.00000 
425.47274 1.42824 0.00000 
425.83292 1.42820 0.00000 
426.19310 1.42816 0.00000 
426.55328 1.42812 0.00000 
426.91346 1.42807 0.00000 
427.27364 1.42803 0.00000 
427.63382 1.42799 0.00000 
427.99400 1.42795 0.00000 
428.35418 1.42791 0.00000 
428.71436 1.42786 0.00000 
429.07454 1.42782 0.00000 
429.43472 1.42778 0.00000 
429.79490 1.42774 0.00000 
430.15508 1.42770 0.00000 
430.51526 1.42766 0.00000 
430.87544 1.42762 0.00000 
431.23562 1.42757 0.00000 
431.59580 1.42753 0.00000 
431.95598 1.42749 0.00000 
432.31616 1.42745 0.00000 
432.67634 1.42741 0.00000 
433.03652 1.42737 0.00000 
433.39670 1.42733 0.00000 
433.75688 1.42729 0.00000 
434.11706 1.42725 0.00000 
434.47724 1.42721 0.00000 
434.83742 1.42717 0.00000 
435.19760 1.42713 0.00000 
435.55778 1.42709 0.00000 
435.91796 1.42705 0.00000 
436.27814 1.42701 0.00000 
436.63832 1.42697 0.00000 
436.99850 1.42693 0.00000 
437.35868 1.42689 0.00000 
437.71886 1.42685 0.00000 
438.07904 1.42681 0.00000 
438.43922 1.42677 0.00000 
438.79940 1.42673 0.00000 
439.15958 1.42670 0.00000 
439.51976 1.42666 0.00000 
439.87994 1.42662 0.00000 
440.24012 1.42658 0.00000 
440.60030 1.42654 0.00000 
440.96048 1.42650 0.00000 
441.32066 1.42646 0.00000 
441.68084 1.42643 0.00000 
442.04102 1.42639 0.00000 
442.40120 1.42635 0.00000 
442.76138 1.42631 0.00000 
443.12156 1.42627 0.00000 
443.48174 1.42624 0.00000 
443.84192 1.42620 0.00000 
444.20210 1.42616 0.00000 
444.56228 1.42612 0.00000 
444.92246 1.42609 0.00000 
445.28264 1.42605 0.00000 
445.64282 1.42601 0.00000 
446.00300 1.42597 0.00000 
446.36318 1.42594 0.00000 
446.72336 1.42590 0.00000 
447.08354 1.42586 0.00000 
447.44372 1.42583 0.00000 
447.80390 1.42579 0.00000 
448.16408 1.42575 0.00000 
448.52426 1.42572 0.00000 
448.88444 1.42568 0.00000 
449.24462 1.42564 0.00000 
449.60480 1.42561 0.00000 
449.96498 1.42557 0.00000 
450.32516 1.42554 0.00000 
450.68534 1.42550 0.00000 
451.04552 1.42546 0.00000 
451.40570 1.42543 0.00000 
451.76588 1.42539 0.00000 
452.12606 1.42536 0.00000 
452.48624 1.42532 0.00000 
452.84642 1.42529 0.00000 
453.20660 1.42525 0.00000 
453.56678 1.42521 0.00000 
453.92696 1.42518 0.00000 
454.28714 1.42514 0.00000 
454.64732 1.42511 0.00000 
455.00750 1.42507 0.00000 
455.36768 1.42504 0.00000 
455.72786 1.42500 0.00000 
456.08804 1.42497 0.00000 
456.44822 1.42493 0.00000 
456.80840 1.42490 0.00000 
457.16858 1.42487 0.00000 
457.52876 1.42483 0.00000 
457.88894 1.42480 0.00000 
458.24912 1.42476 0.00000 
458.60930 1.42473 0.00000 
458.96948 1.42469 0.00000 
459.32966 1.42466 0.00000 
459.68984 1.42463 0.00000 
460.05003 1.42459 0.00000 
460.41021 1.42456 0.00000 
460.77039 1.42453 0.00000 
461.13057 1.42449 0.00000 
461.49075 1.42446 0.00000 
461.85093 1.42442 0.00000 
462.21111 1.42439 0.00000 
462.57129 1.42436 0.00000 
462.93147 1.42432 0.00000 
463.29165 1.42429 0.00000 
463.65183 1.42426 0.00000 
464.01201 1.42423 0.00000 
464.37219 1.42419 0.00000 
464.73237 1.42416 0.00000 
465.09255 1.42413 0.00000 
465.45273 1.42409 0.00000 
